##BLOCKS= 6          
Note:~End
Plate:	MACLS2 BYL719/nothing	1.3	PlateFormat	Endpoint	Absorbance	Raw	FALSE	1						1	570	1	11	96	2	6	None	
	Temperature(¡C)	1	2	3	4	5	6	7	8	9	10	11	12		
	26.60														
		0.0442	0.1235	0.2768	0.6463	0.8771	0.9694	1.0957	1.0784	1.0619	1.0907	1.1641			
		0.0445	0.1414	0.2673	0.506	0.8843	0.9675	1.1946	1.2345	1.2418	1.0761	1.1			
		0.0448	0.1317	0.3317	0.7099	1.0406	1.1453	1.2114	1.239	1.2046	1.0327	1.1744			
		0.0445	0.0941	0.1264	0.321	0.3964	0.4549	0.9152	1.134	1.138	0.9173	0.8325			
		0.0452	0.0931	0.0931	0.1397	0.2066	0.3063	0.8074	0.9688	1.0063	0.9836	0.9073			
		0.0453	0.0919	0.0971	0.1338	0.1869	0.2625	0.7172	0.9233	0.9473	0.8203	0.9263			
															
		
~End
Plate:	HBL100 BYL719/nothing	1.3	PlateFormat	Endpoint	Absorbance	Raw	FALSE	1						1	570	1	11	96	2	6	None	
	Temperature(¡C)	1	2	3	4	5	6	7	8	9	10	11	12		
	26.60														
		0.044	0.2772	0.7655	1.1162	1.1479	1.1823	1.2191	1.2319	1.2657	1.1995	1.2608			
		0.0444	0.2496	0.6136	1.0344	1.0513	1.0725	1.1516	1.1689	1.3358	1.2216	1.2156			
		0.0447	0.2985	0.5783	0.9526	1.0344	1.1548	1.1579	1.27	1.0877	1.2482	1.2244			
		0.0439	0.0975	0.108	0.1043	0.1474	0.2621	0.8601	1.1353	1.0887	1.1661	1.3266			
		0.0461	0.099	0.0972	0.0981	0.1056	0.1976	0.8347	1.1734	1.2839	1.2274	1.2423			
		0.0451	0.0975	0.0956	0.0957	0.1021	0.1814	0.8443	1.1118	1.2008	1.1862	1.1499			
															
		
~End
Plate:	SKBR3 BYL719/nothing	1.3	PlateFormat	Endpoint	Absorbance	Raw	FALSE	1						1	570	1	11	96	2	6	None	
	Temperature(¡C)	1	2	3	4	5	6	7	8	9	10	11	12		
	26.60														
		0.0442	0.0936	0.1215	0.2065	0.3677	0.4459	0.6264	0.7341	0.8695	0.908	0.8565			
		0.0488	0.0981	0.1254	0.1948	0.3873	0.4807	0.5635	0.7701	0.9037	0.9246	0.8897			
		0.0458	0.0995	0.1323	0.2417	0.3556	0.4254	0.5542	0.703	0.8504	0.9258	0.8639			
		0.0444	0.1074	0.1641	0.2014	0.2865	0.4847	0.77	0.8623	0.845	0.8791	0.8357			
		0.045	0.1042	0.1613	0.2097	0.2762	0.4905	0.8528	0.956	0.9483	0.9549	0.8644			
		0.0476	0.0986	0.1555	0.2228	0.2705	0.5173	0.8242	0.8669	0.9282	0.8966	0.8305			
															
		
~End
Plate:	MX1 BYL719/nothing	1.3	PlateFormat	Endpoint	Absorbance	Raw	FALSE	1						1	570	1	11	96	2	6	None	
	Temperature(¡C)	1	2	3	4	5	6	7	8	9	10	11	12		
	26.60														
		0.0446	0.3331	0.4581	0.6061	0.6774	0.7088	0.7763	0.8246	0.773	0.7941	0.7991			
		0.0458	0.2725	0.4778	0.6278	0.6968	0.7868	0.8112	0.7909	0.7995	0.8113	0.7688			
		0.0445	0.2585	0.4518	0.5552	0.6659	0.7533	0.7914	0.8413	0.8261	0.8297	0.7691			
		0.0449	0.1096	0.1667	0.3176	0.5385	0.6371	0.7659	0.7556	0.7942	0.7768	0.7569			
		0.0471	0.1182	0.1754	0.336	0.5833	0.6419	0.7829	0.8088	0.8022	0.8333	0.7342			
		0.0462	0.111	0.1668	0.3345	0.5617	0.6368	0.7467	0.7477	0.814	0.8054	0.7369			
															
		
~End
Plate:	MDA361 BYL719/nothing	1.3	PlateFormat	Endpoint	Absorbance	Raw	FALSE	1						1	570	1	11	96	2	6	None	
	Temperature(¡C)	1	2	3	4	5	6	7	8	9	10	11	12		
	26.60														
		0.0472	0.1979	0.1927	0.22	0.4539	0.838	1.0955	1.2789	1.3496	1.2165	1.3536			
		0.044	0.328	0.2757	0.2224	0.31	0.7532	0.9381	1.3148	1.4376	1.412	1.4868			
		0.046	0.2374	0.2982	0.3665	0.3625	0.4329	1.1779	1.3008	1.3472	1.3866	1.402			
		0.0455	0.2057	0.2832	0.3596	0.5815	1.0145	1.2639	1.3854	1.339	1.2999	1.2872			
		0.0466	0.2601	0.3058	0.3349	0.4811	1.0988	1.2892	1.3563	1.3133	1.3963	1.29			
		0.0454	0.2318	0.3399	0.4277	0.7321	1.0987	1.1992	1.2945	1.1954	1.2389	1.1588			
															
		
~End
Instrument type: Instrument serial number:
