##BLOCKS= 10         
Note:~End
Plate:	HCC1937 lapatinib/nothing	1.3	PlateFormat	Endpoint	Absorbance	Raw	FALSE	1						1	570	1	11	96	2	3	None	
	Temperature(¡C)	1	2	3	4	5	6	7	8	9	10	11	12		
	26.30														
		0.0475	0.087	0.2316	0.6017	0.6668	0.7119	0.799	0.7862	0.8414	0.829	1.0072			
		0.046	0.0866	0.2248	0.627	0.7593	0.8345	0.9582	0.9994	0.9932	1.066	1.0213			
		0.0442	0.0891	0.1843	0.6017	0.7195	0.9091	1.2602	1.0263	0.8571	1.0482	0.9851			
		0.0475	0.087	0.2316	0.6017	0.6668	0.7119	0.799	0.7862	0.8414	0.829	1.0072			
		0.046	0.0866	0.2248	0.627	0.7593	0.8345	0.9582	0.9994	0.9932	1.066	1.0213			
		0.0442	0.0891	0.1843	0.6017	0.7195	0.9091	1.2602	1.0263	0.8571	1.0482	0.9851			
															
		
~End
Plate:	UACC812 lapatinib/nothing	1.3	PlateFormat	Endpoint	Absorbance	Raw	FALSE	1						1	570	1	11	96	2	3	None	
	Temperature(¡C)	1	2	3	4	5	6	7	8	9	10	11	12		
	26.30														
		0.0454	0.1275	0.095	0.1037	0.1019	0.1103	0.1303	0.1579	0.2185	0.2881	1.1144			
		0.0444	0.0927	0.1007	0.1179	0.141	0.1355	0.1818	0.2143	0.3853	0.4643	1.1469			
		0.0454	0.1155	0.1115	0.1206	0.1915	0.1435	0.1648	0.2348	0.3127	0.5689	1.2042			
		0.0475	0.087	0.2316	0.6017	0.6668	0.7119	0.799	0.7862	0.8414	0.829	1.0072			
		0.046	0.0866	0.2248	0.627	0.7593	0.8345	0.9582	0.9994	0.9932	1.066	1.0213			
		0.0442	0.0891	0.1843	0.6017	0.7195	0.9091	1.2602	1.0263	0.8571	1.0482	0.9851			
															
		
~End
Plate:	HCC1143 lapatinib/nothing	1.3	PlateFormat	Endpoint	Absorbance	Raw	FALSE	1						1	570	1	11	96	2	3	None	
	Temperature(¡C)	1	2	3	4	5	6	7	8	9	10	11	12		
	26.40														
		0.0469	0.0747	0.1215	0.586	0.7076	0.8219	0.7145	0.6294	0.6996	0.6805	0.7821			
		0.0454	0.0877	0.1543	0.7309	0.7873	0.7731	0.8882	0.8091	0.7728	0.9464	0.7956			
		0.0453	0.0799	0.1792	0.7115	0.7829	0.9197	0.9167	0.9041	1.0525	0.9632	1.1249			
		0.0475	0.087	0.2316	0.6017	0.6668	0.7119	0.799	0.7862	0.8414	0.829	1.0072			
		0.046	0.0866	0.2248	0.627	0.7593	0.8345	0.9582	0.9994	0.9932	1.066	1.0213			
		0.0442	0.0891	0.1843	0.6017	0.7195	0.9091	1.2602	1.0263	0.8571	1.0482	0.9851			
															
		
~End
Plate:	MDA134 lapatinib/nothing	1.3	PlateFormat	Endpoint	Absorbance	Raw	FALSE	1						1	570	1	11	96	2	3	None	
	Temperature(¡C)	1	2	3	4	5	6	7	8	9	10	11	12		
	26.40														
		0.0438	0.1048	0.5659	0.8953	0.9436	0.8971	0.8928	0.8043	0.7535	0.7495	0.4935			
		0.0449	0.1075	0.78	1.1955	1.1765	1.1856	1.2067	1.1791	1.6394	1.0735	0.9591			
		0.0432	0.1083	0.6765	1.0489	1.0466	1.0505	1.2104	0.9454	1.0876	0.9797	0.953			
		0.0475	0.087	0.2316	0.6017	0.6668	0.7119	0.799	0.7862	0.8414	0.829	1.0072			
		0.046	0.0866	0.2248	0.627	0.7593	0.8345	0.9582	0.9994	0.9932	1.066	1.0213			
		0.0442	0.0891	0.1843	0.6017	0.7195	0.9091	1.2602	1.0263	0.8571	1.0482	0.9851			
															
		
~End
Plate:	EFM19 lapatinib/nothing	1.3	PlateFormat	Endpoint	Absorbance	Raw	FALSE	1						1	570	1	11	96	2	3	None	
	Temperature(¡C)	1	2	3	4	5	6	7	8	9	10	11	12		
	26.40														
		0.0438	0.0814	0.744	1.7793	1.7508	1.8868	1.9324	1.8556	1.7911	1.868	1.9903			
		0.0456	0.0844	1.0341	1.6598	2.0828	1.9142	2.0087	1.9952	2.0675	2.095	2.1168			
		0.046	0.0861	0.8164	1.8371	1.9615	1.8617	1.8213	1.9149	2.0353	1.8487	1.8296			
		0.0475	0.087	0.2316	0.6017	0.6668	0.7119	0.799	0.7862	0.8414	0.829	1.0072			
		0.046	0.0866	0.2248	0.627	0.7593	0.8345	0.9582	0.9994	0.9932	1.066	1.0213			
		0.0442	0.0891	0.1843	0.6017	0.7195	0.9091	1.2602	1.0263	0.8571	1.0482	0.9851			
															
		
~End
Plate:	HCC3153 lapatinib/nothing	1.3	PlateFormat	Endpoint	Absorbance	Raw	FALSE	1						1	570	1	11	96	2	3	None	
	Temperature(¡C)	1	2	3	4	5	6	7	8	9	10	11	12		
	26.40														
		0.0458	0.0819	0.1728	0.5357	0.5233	0.576	0.6268	0.5762	0.5946	0.5422	0.5337			
		0.0477	0.084	0.2485	0.6509	0.7151	0.7533	0.9118	0.8055	0.761	0.8861	0.8108			
		0.0458	0.0869	0.2564	0.672	0.7205	0.7685	0.96	0.9612	1.0116	0.9174	0.865			
		0.0475	0.087	0.2316	0.6017	0.6668	0.7119	0.799	0.7862	0.8414	0.829	1.0072			
		0.046	0.0866	0.2248	0.627	0.7593	0.8345	0.9582	0.9994	0.9932	1.066	1.0213			
		0.0442	0.0891	0.1843	0.6017	0.7195	0.9091	1.2602	1.0263	0.8571	1.0482	0.9851			
															
		
~End
Plate:	ZR751 lapatinib/nothing	1.3	PlateFormat	Endpoint	Absorbance	Raw	FALSE	1						1	570	1	11	96	2	3	None	
	Temperature(¡C)	1	2	3	4	5	6	7	8	9	10	11	12		
	26.40														
		0.0451	0.0783	1.1125	1.8407	2.0187	2.0219	2.0809	2.0701	1.9279	1.9925	1.8357			
		0.0471	0.0823	1.2106	1.7742	2.1059	1.9825	2.1535	2.0132	1.9909	2.1211	2.1086			
		0.0457	0.0805	1.0646	1.8188	1.9993	2.1069	2.0647	2.0038	2.0483	2.1143	2.0802			
		0.0475	0.087	0.2316	0.6017	0.6668	0.7119	0.799	0.7862	0.8414	0.829	1.0072			
		0.046	0.0866	0.2248	0.627	0.7593	0.8345	0.9582	0.9994	0.9932	1.066	1.0213			
		0.0442	0.0891	0.1843	0.6017	0.7195	0.9091	1.2602	1.0263	0.8571	1.0482	0.9851			
															
		
~End
Plate:	HCC1395 lapatinib/nothing	1.3	PlateFormat	Endpoint	Absorbance	Raw	FALSE	1						1	570	1	11	96	2	3	None	
	Temperature(¡C)	1	2	3	4	5	6	7	8	9	10	11	12		
	26.40														
		0.0451	0.0759	0.078	0.215	0.3831	0.4011	0.5335	0.519	0.5118	0.5298	0.427			
		0.0465	0.0761	0.0811	0.311	0.5287	0.571	0.5746	0.6769	0.582	0.6043	0.7127			
		0.0476	0.0787	0.1207	0.4453	0.544	0.5592	0.7864	0.6139	0.6665	0.7118	0.6127			
		0.0475	0.087	0.2316	0.6017	0.6668	0.7119	0.799	0.7862	0.8414	0.829	1.0072			
		0.046	0.0866	0.2248	0.627	0.7593	0.8345	0.9582	0.9994	0.9932	1.066	1.0213			
		0.0442	0.0891	0.1843	0.6017	0.7195	0.9091	1.2602	1.0263	0.8571	1.0482	0.9851			
															
		
~End
Plate:	HCC202 lapatinib/nothing	1.3	PlateFormat	Endpoint	Absorbance	Raw	FALSE	1						1	570	1	11	96	2	3	None	
	Temperature(¡C)	1	2	3	4	5	6	7	8	9	10	11	12		
	26.40														
		0.0444	0.0673	0.0788	0.1213	0.1669	0.1289	0.1699	0.2641	0.2419	0.2201	0.3194			
		0.0456	0.0661	0.0832	0.1295	0.1787	0.1785	0.252	0.325	0.3441	0.3531	0.349			
		0.0449	0.069	0.0855	0.1381	0.1577	0.1871	0.2645	0.298	0.3737	0.3866	0.4631			
		0.0475	0.087	0.2316	0.6017	0.6668	0.7119	0.799	0.7862	0.8414	0.829	1.0072			
		0.046	0.0866	0.2248	0.627	0.7593	0.8345	0.9582	0.9994	0.9932	1.066	1.0213			
		0.0442	0.0891	0.1843	0.6017	0.7195	0.9091	1.2602	1.0263	0.8571	1.0482	0.9851			
															
		
~End
Instrument type: Instrument serial number:
