##BLOCKS= 5          
Note:~End
Plate:	MA CLS 2 lapatinib/nothing	1.3	PlateFormat	Endpoint	Absorbance	Raw	FALSE	1						1	570	1	11	96	2	3	None	
	Temperature(¡C)	1	2	3	4	5	6	7	8	9	10	11	12		
	26.70														
		0.0458	0.1005	0.1017	0.4143	0.7702	0.8772	0.8859	1.0302	1.1505	1.3517	1.8781			
		0.0458	0.0906	0.0943	0.355	0.8063	0.8515	1.0625	1.1412	1.4022	1.6389	1.3921			
		0.0451	0.0965	0.1027	0.4508	0.9743	1.0216	1.1425	1.1614	1.2432	1.4388	1.7058			
		0.0458	0.1005	0.1017	0.4143	0.7702	0.8772	0.8859	1.0302	1.1505	1.3517	1.8781			
		0.0458	0.0906	0.0943	0.355	0.8063	0.8515	1.0625	1.1412	1.4022	1.6389	1.3921			
		0.0451	0.0965	0.1027	0.4508	0.9743	1.0216	1.1425	1.1614	1.2432	1.4388	1.7058			
															
		
~End
Plate:	T47D lapatinib/nothing	1.3	PlateFormat	Endpoint	Absorbance	Raw	FALSE	1						1	570	1	11	96	2	3	None	
	Temperature(¡C)	1	2	3	4	5	6	7	8	9	10	11	12		
	26.70														
		0.0445	0.1312	0.318	0.3931	0.7598	0.9726	0.9773	0.9988	1.0397	1.1168	1.1854			
		0.0448	0.1252	0.4633	0.4759	1.0016	1.0513	0.9231	1.1619	0.9998	1.4486	1.0273			
		0.0448	0.1195	0.3373	0.4632	0.7916	0.9995	0.9632	1.1017	1.2095	1.85	1.7371			
		0.0458	0.1005	0.1017	0.4143	0.7702	0.8772	0.8859	1.0302	1.1505	1.3517	1.8781			
		0.0458	0.0906	0.0943	0.355	0.8063	0.8515	1.0625	1.1412	1.4022	1.6389	1.3921			
		0.0451	0.0965	0.1027	0.4508	0.9743	1.0216	1.1425	1.1614	1.2432	1.4388	1.7058			
															
		
~End
Plate:	HBL100 lapatinib/nothing	1.3	PlateFormat	Endpoint	Absorbance	Raw	FALSE	1						1	570	1	11	96	2	3	None	
	Temperature(¡C)	1	2	3	4	5	6	7	8	9	10	11	12		
	26.70														
		0.0448	0.1275	0.096	0.5185	0.9367	1.2006	1.1739	1.0073	1.1365	1.1134	0.972			
		0.0466	0.1096	0.0902	0.6582	1.406	1.5612	1.3701	1.3597	1.1912	1.3836	1.449			
		0.0469	0.0896	0.0932	0.603	1.1463	1.4187	1.4826	1.2258	1.1239	1.1232	1.4288			
		0.0458	0.1005	0.1017	0.4143	0.7702	0.8772	0.8859	1.0302	1.1505	1.3517	1.8781			
		0.0458	0.0906	0.0943	0.355	0.8063	0.8515	1.0625	1.1412	1.4022	1.6389	1.3921			
		0.0451	0.0965	0.1027	0.4508	0.9743	1.0216	1.1425	1.1614	1.2432	1.4388	1.7058			
															
		
~End
Plate:	DU145 lapatinib/nothing	1.3	PlateFormat	Endpoint	Absorbance	Raw	FALSE	1						1	570	1	11	96	2	3	None	
	Temperature(¡C)	1	2	3	4	5	6	7	8	9	10	11	12		
	26.80														
		0.0437	0.1003	0.0999	0.7652	1.0259	1.3283	1.4034	1.4804	1.4887	1.4211	1.3788			
		0.0446	0.0943	0.0903	0.9191	1.335	1.409	1.5162	1.4878	1.3497	1.5949	1.6309			
		0.0444	0.0964	0.0901	0.9221	1.2401	1.4571	1.5624	1.6285	1.5737	1.6183	1.4793			
		0.0458	0.1005	0.1017	0.4143	0.7702	0.8772	0.8859	1.0302	1.1505	1.3517	1.8781			
		0.0458	0.0906	0.0943	0.355	0.8063	0.8515	1.0625	1.1412	1.4022	1.6389	1.3921			
		0.0451	0.0965	0.1027	0.4508	0.9743	1.0216	1.1425	1.1614	1.2432	1.4388	1.7058			
															
		
~End
Instrument type: Instrument serial number:
