##BLOCKS= 4          
Note:~End
Plate:	HCC1428 UNC0642/nothing	1.3	PlateFormat	Endpoint	Absorbance	Raw	FALSE	1						1	570	2	10	96	2	6	None	
	Temperature(¡C)	1	2	3	4	5	6	7	8	9	10	11	12		
	26.90														
		0.045	0.5804	1.8977	2.0003	2.0585	2.0747	2.0764	1.956	1.9242	1.8762	1.4934			
		0.045	0.5858	1.9567	2.1746	2.1146	2.1356	1.9951	2.0276	1.9996	1.9575	1.6722			
		0.045	0.7792	1.9523	2.0862	2.0619	2.0581	1.9055	2.0037	2.0686	1.8209	1.9131			
		0.045	0.1626	0.1383	2.1149	2.1923	2.2342	2.2624	2.2605	2.2455	2.2788	2.2894			
		0.045	0.1266	0.1685	2.1373	2.2079	2.2491	2.2451	2.267	2.3045	2.2347	2.3302			
		0.045	0.1394	0.2059	2.0252	2.177	2.2563	2.2491	2.2626	2.2529	2.2804	2.2465			
															
		
~End
Plate:	HCC1419 UNC0642/nothing	1.3	PlateFormat	Endpoint	Absorbance	Raw	FALSE	1						1	570	2	10	96	2	6	None	
	Temperature(¡C)	1	2	3	4	5	6	7	8	9	10	11	12		
	26.90														
		0.045	2.3764	2.4682	2.4683	2.495	2.5006	2.4994	2.498	2.4999	2.4858	2.4655			
		0.045	2.4041	2.4743	2.5048	2.4984	2.5099	2.5247	2.4979	2.5133	2.4863	2.4966			
		0.045	2.3815	2.4386	2.471	2.4842	2.4692	2.484	2.4758	2.4718	2.4771	2.4621			
		0.045	0.1522	2.4194	2.4563	2.4663	2.4559	2.4623	2.4659	2.4271	2.4768	2.452			
		0.045	0.1899	2.4004	2.4656	2.4548	2.4493	2.4688	2.4672	2.4779	2.4707	2.4609			
		0.045	0.1953	2.3946	2.4312	2.4314	2.4742	2.4667	2.4567	2.4456	2.4631	2.4496			
															
		
~End
Plate:	MDA330 UNC0642/nothing	1.3	PlateFormat	Endpoint	Absorbance	Raw	FALSE	1						1	570	2	10	96	2	6	None	
	Temperature(¡C)	1	2	3	4	5	6	7	8	9	10	11	12		
	26.90														
		0.045	0.6727	1.9826	1.9983	2.0403	2.0554	2.0841	2.0891	2.1187	2.1181	2.1107			
		0.045	0.6343	1.9017	1.9985	1.9609	2.0479	2.0812	2.1151	2.069	2.1376	2.0947			
		0.045	0.9194	1.9132	1.9777	1.9956	2.0989	1.9884	2.0742	2.0103	2.041	1.9417			
		0.045	0.3145	1.4384	1.7901	1.9078	1.8871	2.0122	1.9538	1.8598	1.9328	1.849			
		0.045	0.3119	1.3436	1.6352	1.9159	1.7524	2.0334	1.9335	1.8673	1.7674	1.9109			
		0.045	0.2898	1.5394	1.6844	1.8015	1.8705	1.8591	2.0025	1.8412	1.9461	1.9024			
															
		
~End
Instrument type: Instrument serial number:
